;Bundle             = 1
;Partition          = 1
;Operator           = N.U. X-ray Dif. Fac
;Gonio              = ATX-G
;Memo               = J.B. Cohen X-ray Diffraction Facility
;IncidentMonochro   = Slit collimation
;CounterMonochro    = Receiving slit
;Attachment         = XY-STAGE
;Filter             = 
;SlitName0          = XRR Compression 5*.5
;SlitName1          = Reciprocal SM Slit Collimation
;Counter            = SC-70
;KAlpha1            = 1.54056
;KAlpha2            = 1.54439
;KBata              = 0
;Target             = Cu
;KV                 = 50
;mA                 = 240
;AxisName           = Z
;MeasurementMethod = Continuation
;Start              = -0.7155
;Finish             = 0.4875
;Speed              = 3
;FixedTime          = 
;Width              = 0.003
;FullScale         = 145000
;Comment            = 
;SampleName         = 11182019_sro_sto111
;Xunit              = mm
;Yunit              = CPS
-0.7155 121009.4
-0.7125 117922.1
-0.7095 116677.8
-0.7065 115769.3
-0.7035 118965.2
-0.7005 114846.8
-0.6975 117484.5
-0.6945 117122.9
-0.6915 119188.1
-0.6885 117080.9
-0.6855 116593.4
-0.6825 118781.4
-0.6795 117390.8
-0.6765 116765.2
-0.6735 118733.0
-0.6705 121094.5
-0.6675 119357.3
-0.6645 117827.4
-0.6615 116390.3
-0.6585 119424.8
-0.6555 118040.9
-0.6525 121227.0
-0.6495 116730.9
-0.6465 116777.7
-0.6435 119204.4
-0.6405 118072.9
-0.6375 117338.3
-0.6345 115373.9
-0.6315 115401.7
-0.6285 115732.7
-0.6255 118804.9
-0.6225 116360.5
-0.6195 120199.9
-0.6165 118774.0
-0.6135 118511.1
-0.6105 119202.9
-0.6075 118108.3
-0.6045 116895.0
-0.6015 117852.8
-0.5985 117415.9
-0.5955 118065.5
-0.5925 119855.2
-0.5895 119159.3
-0.5865 117449.5
-0.5835 114650.4
-0.5805 115737.0
-0.5775 121008.0
-0.5745 117560.6
-0.5715 117606.3
-0.5685 116257.3
-0.5655 120537.4
-0.5625 117833.9
-0.5595 115407.8
-0.5565 114659.8
-0.5535 113760.3
-0.5505 116572.0
-0.5475 110539.7
-0.5445 112412.9
-0.5415 112090.6
-0.5385 109882.0
-0.5355 113121.3
-0.5325 108895.7
-0.5295 106276.3
-0.5265 105680.6
-0.5235 104445.8
-0.5205 101058.2
-0.5175 97890.6
-0.5145 98489.9
-0.5115 96109.4
-0.5085 93372.2
-0.5055 89803.6
-0.5025 90572.9
-0.4995 89377.0
-0.4965 83134.5
-0.4935 85561.6
-0.4905 82569.6
-0.4875 79893.6
-0.4845 78571.3
-0.4815 71892.3
-0.4785 71166.4
-0.4755 70041.5
-0.4725 65626.5
-0.4695 65049.2
-0.4665 63739.3
-0.4635 58403.6
-0.4605 57997.3
-0.4575 53865.7
-0.4545 51752.6
-0.4515 50524.9
-0.4485 46928.7
-0.4455 44879.8
-0.4425 42540.3
-0.4395 40298.9
-0.4365 38392.7
-0.4335 35640.3
-0.4305 34188.5
-0.4275 32527.8
-0.4245 30807.6
-0.4215 29854.8
-0.4185 27409.4
-0.4155 26087.8
-0.4125 25664.9
-0.4095 23773.1
-0.4065 22946.8
-0.4035 21760.3
-0.4005 20078.8
-0.3975 20522.2
-0.3945 20580.4
-0.3915 18638.2
-0.3885 18839.1
-0.3855 18439.2
-0.3825 18377.8
-0.3795 18575.6
-0.3765 19100.3
-0.3735 17792.2
-0.3705 18186.2
-0.3675 18406.3
-0.3645 17877.9
-0.3615 18427.6
-0.3585 18640.7
-0.3555 17837.1
-0.3525 18120.7
-0.3495 17500.2
-0.3465 17816.8
-0.3435 18151.5
-0.3405 17546.8
-0.3375 18228.1
-0.3345 17869.8
-0.3315 18143.3
-0.3285 18371.0
-0.3255 17287.9
-0.3225 18316.1
-0.3195 17688.8
-0.3165 17401.6
-0.3135 18460.7
-0.3105 18619.9
-0.3075 17785.6
-0.3045 19060.6
-0.3015 17562.1
-0.2985 18360.3
-0.2955 18340.6
-0.2925 18215.4
-0.2895 17687.4
-0.2865 17327.0
-0.2835 17700.5
-0.2805 17553.8
-0.2775 17979.0
-0.2745 18901.8
-0.2715 18459.7
-0.2685 19094.3
-0.2655 18281.5
-0.2625 17646.3
-0.2595 18787.5
-0.2565 18621.3
-0.2535 18152.5
-0.2505 18940.1
-0.2475 18406.9
-0.2445 18208.4
-0.2415 17958.1
-0.2385 17771.0
-0.2355 18353.6
-0.2325 17359.3
-0.2295 18137.2
-0.2265 17914.1
-0.2235 17608.6
-0.2205 19046.8
-0.2175 17945.6
-0.2145 17448.3
-0.2115 18815.3
-0.2085 17906.3
-0.2055 17164.0
-0.2025 18265.6
-0.1995 17987.4
-0.1965 17518.9
-0.1935 18196.3
-0.1905 16813.7
-0.1875 17364.6
-0.1845 17567.0
-0.1815 18321.8
-0.1785 17911.9
-0.1755 17747.9
-0.1725 18227.8
-0.1695 18307.4
-0.1665 17716.4
-0.1635 19356.3
-0.1605 17846.8
-0.1575 18591.4
-0.1545 18174.4
-0.1515 17420.9
-0.1485 19115.8
-0.1455 18589.5
-0.1425 17896.7
-0.1395 18843.7
-0.1365 19296.4
-0.1335 18615.5
-0.1305 18468.7
-0.1275 18646.7
-0.1245 18255.4
-0.1215 18419.2
-0.1185 18414.7
-0.1155 17878.3
-0.1125 17911.0
-0.1095 19112.2
-0.1065 17977.9
-0.1035 18831.8
-0.1005 19224.3
-0.0975 18490.7
-0.0945 18665.2
-0.0915 17925.0
-0.0885 18363.8
-0.0855 17788.1
-0.0825 17198.6
-0.0795 18133.4
-0.0765 16717.3
-0.0735 16433.0
-0.0705 16838.0
-0.0675 16994.3
-0.0645 17913.5
-0.0615 16236.4
-0.0585 15774.1
-0.0555 16633.6
-0.0525 15688.5
-0.0495 17369.9
-0.0465 15568.0
-0.0435 15315.1
-0.0405 15355.0
-0.0375 13595.3
-0.0345 14201.5
-0.0315 14830.8
-0.0285 14586.5
-0.0255 13027.3
-0.0225 12441.7
-0.0195 12672.2
-0.0165 12373.5
-0.0135 12556.1
-0.0105 11379.7
-0.0075 11052.6
-0.0045 10913.0
-0.0015 10936.7
0.0015 10193.3
0.0045 10135.7
0.0075 9187.7
0.0105 8876.7
0.0135 8212.1
0.0165 7581.8
0.0195 8092.2
0.0225 6671.3
0.0255 6105.6
0.0285 5387.5
0.0315 5745.3
0.0345 4671.3
0.0375 4548.6
0.0405 4278.8
0.0435 3363.4
0.0465 2953.7
0.0495 2935.7
0.0525 2479.5
0.0555 1853.5
0.0585 1802.0
0.0615 1649.9
0.0645 1312.9
0.0675 942.2
0.0705 588.6
0.0735 537.8
0.0765 403.0
0.0795 386.1
0.0825 184.6
0.0855 150.9
0.0885 83.8
0.0915 83.8
0.0945 16.8
0.0975 150.7
0.1005 83.8
0.1035 50.2
0.1065 16.7
0.1095 66.9
0.1125 50.2
0.1155 33.4
0.1185 50.2
0.1215 50.1
0.1245 50.1
0.1275 16.7
0.1305 16.7
0.1335 0.0
0.1365 50.1
0.1395 16.7
0.1425 16.7
0.1455 33.4
0.1485 16.7
0.1515 16.7
0.1545 16.7
0.1575 0.0
0.1605 0.0
0.1635 0.0
0.1665 0.0
0.1695 16.7
0.1725 0.0
0.1755 33.3
0.1785 0.0
0.1815 0.0
0.1845 16.7
0.1875 0.0
0.1905 0.0
0.1935 0.0
0.1965 0.0
0.1995 0.0
0.2025 0.0
0.2055 0.0
0.2085 16.7
0.2115 0.0
0.2145 0.0
0.2175 0.0
0.2205 0.0
0.2235 0.0
0.2265 0.0
0.2295 0.0
0.2325 0.0
0.2355 0.0
0.2385 0.0
0.2415 0.0
0.2445 0.0
0.2475 0.0
0.2505 0.0
0.2535 0.0
0.2565 0.0
0.2595 0.0
0.2625 0.0
0.2655 0.0
0.2685 0.0
0.2715 0.0
0.2745 0.0
0.2775 0.0
0.2805 16.7
0.2835 0.0
0.2865 0.0
0.2895 0.0
0.2925 0.0
0.2955 0.0
0.2985 0.0
0.3015 0.0
0.3045 0.0
0.3075 0.0
0.3105 0.0
0.3135 0.0
0.3165 0.0
0.3195 0.0
0.3225 0.0
0.3255 0.0
0.3285 0.0
0.3315 0.0
0.3345 0.0
0.3375 0.0
0.3405 0.0
0.3435 0.0
0.3465 0.0
0.3495 0.0
0.3525 0.0
0.3555 0.0
0.3585 0.0
0.3615 0.0
0.3645 0.0
0.3675 0.0
0.3705 0.0
0.3735 16.7
0.3765 0.0
0.3795 0.0
0.3825 0.0
0.3855 0.0
0.3885 0.0
0.3915 0.0
0.3945 0.0
0.3975 0.0
0.4005 0.0
0.4035 0.0
0.4065 0.0
0.4095 0.0
0.4125 0.0
0.4155 0.0
0.4185 0.0
0.4215 0.0
0.4245 0.0
0.4275 0.0
0.4305 0.0
0.4335 0.0
0.4365 0.0
0.4395 0.0
0.4425 0.0
0.4455 0.0
0.4485 0.0
0.4515 0.0
0.4545 0.0
0.4575 0.0
0.4605 0.0
0.4635 0.0
0.4665 0.0
0.4695 0.0
0.4725 0.0
0.4755 0.0
0.4785 0.0
0.4815 0.0
0.4845 0.0
0.4875 0.0
